#Wave		#Intensity
3201.549805	144.420578
3200.847656	170.342224
3200.145508	111.072929
3199.443359	144.369049
3198.740234	133.239960
3198.038086	99.912132
3197.334961	210.887970
3196.632813	144.266006
3195.929688	188.621872
3195.226563	118.329857
3194.523438	140.491623
3193.819336	140.466537
3193.116211	140.441467
3192.412109	107.159874
3191.708984	206.892456
3191.004883	147.753937
3190.300781	177.273071
3189.596680	140.316116
3188.892578	188.285370
3188.188477	129.192368
3187.483398	184.527557
3186.779297	195.564270
3186.074219	132.812378
3185.369141	121.722939
3184.664063	143.828674
3183.958984	121.679443
3183.253906	151.150482
3182.548828	129.007843
3181.842773	147.411194
3181.137695	173.177200
3180.431641	158.410400
3179.725586	162.065384
3179.019531	125.209961
3178.313477	136.233551
3177.607422	132.527863
3176.901367	154.588196
3176.194336	139.840515
3175.488281	161.891647
3174.781250	143.469208
3174.074219	128.731400
3173.367188	161.804825
3172.660156	154.422440
3171.953125	110.282013
3171.245117	158.042618
3170.538086	161.689102
3169.830078	124.919235
3169.122070	161.631271
3168.414063	176.293488
3167.706055	209.311050
3166.998047	154.201614
3166.290039	132.149155
3165.582031	135.795670
3164.873047	176.135834
3164.164063	154.091278
3163.455078	198.081894
3162.747070	124.695915
3162.037109	135.674210
3161.328125	139.316147
3160.619141	95.304504
3159.909180	194.239792
3159.200195	157.562576
3158.490234	175.852310
3157.780273	179.483765
3157.070313	194.100739
3156.360352	106.187050
3155.650391	172.065430
3154.940430	131.771194
3154.229492	124.428291
3153.519531	117.088005
3152.808594	149.992142
3152.097656	135.334518
3151.386719	138.967316
3150.675781	146.255173
3149.963867	230.310638
3149.252930	138.892639
3148.541016	124.250099
3147.830078	138.842880
3147.118164	146.124207
3146.406250	146.098022
3145.694336	124.161064
3144.982422	178.905945
3144.269531	164.271927
3143.557617	145.993317
3142.844727	124.072083
3142.132813	207.965912
3141.419922	105.788246
3140.707031	207.891357
3139.994141	167.741882
3139.280273	164.065903
3138.567383	178.617508
3137.854492	145.784073
3137.140625	156.689774
3136.426758	138.445190
3135.712891	200.345276
3134.999023	145.679520
3134.285156	178.425400
3133.571289	178.393402
3132.856445	131.041031
3132.142578	156.493149
3131.427734	152.826355
3130.712891	229.198395
3129.998047	181.870850
3129.283203	174.564682
3128.568359	170.897247
3127.853516	149.053833
3127.137695	152.661880
3126.422852	174.439407
3125.707031	254.345154
3124.991211	188.908203
3124.275391	141.655716
3123.559570	156.156479
3122.843750	167.021118
3122.126953	170.621384
3121.411133	221.405014
3120.694336	217.736313
3119.977539	177.786057
3119.260742	163.243591
3118.543945	170.468246
3117.827148	116.042641
3117.110352	195.786789
3116.392578	123.251022
3115.675781	170.345810
3114.958008	159.444031
3114.240234	206.515381
3113.522461	173.876450
3112.804688	220.928284
3112.086914	177.435089
3111.369141	191.885101
3110.650391	119.454163
3109.931641	188.196976
3109.213867	170.070541
3108.495117	188.129333
3107.776367	126.602753
3107.057617	177.212006
3106.337891	166.332382
3105.619141	126.534492
3104.899414	180.731064
3104.180664	140.944885
3103.460938	148.146194
3102.741211	191.471619
3102.021484	162.541000
3101.300781	151.677658
3100.581055	133.596771
3099.861328	184.113770
3099.140625	155.205261
3098.419922	194.873871
3097.699219	158.757553
3096.978516	155.121521
3096.257813	194.768723
3095.537109	212.764587
3094.815430	216.331833
3094.094727	219.897797
3093.373047	158.586258
3092.651367	183.782806
3091.929688	198.161484
3091.208008	223.341827
3090.486328	165.675415
3089.764648	244.867386
3089.041992	129.612350
3088.320313	161.986267
3087.597656	158.358063
3086.875000	176.321533
3086.152344	215.865051
3085.429688	154.675430
3084.707031	172.629868
3083.983398	161.811356
3083.260742	219.304779
3082.537109	165.347595
3081.813477	208.444199
3081.089844	172.474472
3080.366211	215.554260
3079.642578	183.188110
3078.917969	165.198730
3078.194336	136.443924
3077.469727	218.988953
3076.746094	215.360153
3076.021484	229.676102
3075.296875	157.873871
3074.572266	240.355530
3073.846680	208.031464
3073.122070	172.132950
3072.396484	150.589172
3071.671875	186.410141
3070.946289	164.871552
3070.220703	204.260529
3069.495117	175.560730
3068.769531	225.680237
3068.042969	236.384293
3067.317383	153.980179
3066.590820	175.434143
3065.864258	161.083939
3065.137695	214.739853
3064.411133	182.495956
3063.684570	164.574509
3062.958008	164.544815
3062.230469	203.855713
3061.503906	139.455063
3060.776367	150.155289
3060.048828	157.277161
3059.321289	218.003998
3058.593750	232.257416
3057.866211	167.909683
3057.138672	185.738892
3056.410156	199.990387
3055.682617	199.954300
3054.954102	224.907990
3054.225586	185.604828
3053.497070	246.238876
3052.768555	164.129623
3052.039063	206.908676
3051.310547	196.171082
3050.581055	203.267868
3049.852539	210.362091
3049.123047	188.935211
3048.393555	185.336929
3047.664063	171.049347
3046.933594	174.581329
3046.204102	178.112045
3045.473633	174.518280
3044.744141	160.242935
3044.013672	192.256790
3043.283203	210.020401
3042.552734	185.069275
3041.822266	217.061279
3041.090820	252.599442
3040.360352	213.425751
3039.628906	209.830734
3038.898438	245.350906
3038.166992	177.758377
3037.435547	213.271515
3036.703125	191.909668
3035.971680	209.641174
3035.240234	223.813675
3034.507813	245.084946
3033.776367	198.873566
3033.043945	213.040298
3032.311523	213.001770
3031.579102	234.259583
3030.845703	234.217224
3030.113281	262.559692
3029.379883	258.964752
3028.647461	219.902893
3027.914063	205.678391
3027.180664	212.732269
3026.447266	219.783585
3025.713867	230.376587
3024.980469	240.965744
3024.246094	226.750259
3023.512695	208.997574
3022.778320	223.126526
3022.043945	166.429352
3021.309570	219.505371
3020.575195	251.323547
3019.840820	169.878128
3019.105469	191.078308
3018.371094	237.035721
3017.635742	162.711487
3016.900391	226.340225
3016.165039	205.083694
3015.429688	190.905411
3014.694336	229.751953
3013.958008	332.196503
3013.222656	236.735489
3012.486328	229.627167
3011.750000	236.649750
3011.014648	257.795563
3010.278320	222.440811
3009.541016	264.762512
3008.804688	236.478333
3008.068359	257.608826
3007.331055	243.449158
3006.593750	257.515503
3005.856445	236.307007
3005.119141	229.211533
3004.381836	282.055389
3003.644531	218.553299
3002.907227	211.464874
3002.168945	225.521652
3001.430664	236.050186
3000.692383	236.007401
2999.954102	228.920898
2999.215820	323.952362
2998.477539	204.193817
2997.739258	306.235199
2997.000000	288.583130
2996.261719	285.012146
2995.522461	263.852264
2994.783203	253.252258
2994.043945	305.957642
2993.304688	270.740997
2992.564453	260.145447
2991.825195	323.365387
2991.084961	302.221527
2990.344727	281.085297
2989.605469	351.292877
2988.865234	330.155396
2988.124023	354.677063
2987.383789	344.079651
2986.643555	277.320007
2985.902344	270.250183
2985.161133	343.892365
2984.420898	326.287598
2983.679688	343.767548
2982.937500	322.661987
2982.196289	322.603394
2981.455078	329.556671
2980.712891	322.486267
2979.971680	357.474213
2979.229492	325.873199
2978.487305	325.814026
2977.745117	336.263092
2977.001953	360.716766
2976.259766	332.639496
2975.517578	378.089905
2974.774414	357.020050
2974.031250	325.459167
2973.288086	367.387146
2972.544922	332.337494
2971.801758	304.295898
2971.058594	325.222717
2970.314453	360.127441
2969.571289	356.566254
2968.827148	366.986816
2968.083008	352.942200
2967.338867	342.396545
2966.594727	307.402222
2965.849609	324.809235
2965.105469	356.177612
2964.360352	394.517212
2963.616211	352.557465
2962.871094	349.003326
2962.125977	404.770264
2961.380859	390.741608
2960.634766	296.491058
2959.889648	331.312073
2959.143555	449.805115
2958.398438	393.943695
2957.652344	376.444061
2956.906250	386.830475
2956.160156	397.213074
2955.414063	421.526672
2954.666992	341.339661
2953.920898	410.926025
2953.173828	463.078125
2952.426758	529.135864
2951.679688	483.792755
2950.932617	452.385712
2950.185547	483.616699
2949.438477	417.434845
2948.690430	452.138763
2947.942383	493.784760
2947.195313	476.311249
2946.447266	465.796265
2945.699219	427.481415
2944.951172	462.151855
2944.202148	475.964478
2943.454102	444.615753
2942.705078	461.899445
2941.956055	479.176819
2941.207031	433.957916
2940.458008	506.770538
2939.708984	385.214264
2938.959961	454.539459
2938.209961	461.394928
2937.460938	385.003815
2936.710938	464.694702
2935.960938	412.601440
2935.210938	502.658051
2934.460938	481.770599
2933.710938	440.098694
2932.959961	433.089081
2932.209961	412.225647
2931.458984	415.613983
2930.708008	446.703583
2929.957031	439.697784
2929.206055	463.848541
2928.455078	460.303040
2927.703125	432.536774
2926.952148	494.731842
2926.200195	415.083893
2925.448242	484.176239
2924.696289	525.581238
2923.944336	483.999664
2923.192383	504.650452
2922.440430	570.220154
2921.687500	480.279663
2920.934570	497.465149
2920.182617	500.828369
2919.429688	490.376923
2918.676758	469.571106
2917.922852	524.718994
2917.169922	555.686462
2916.416016	455.510742
2915.663086	527.882019
2914.909180	527.785706
2914.155273	489.750916
2913.401367	579.317871
2912.647461	506.810608
2911.892578	537.741638
2911.138672	523.857727
2910.383789	499.641510
2909.628906	516.776123
2908.874023	551.127258
2908.119141	499.367859
2907.364258	488.946808
2906.609375	523.284119
2905.853516	540.398682
2905.098633	523.093018
2904.342773	595.253662
2903.586914	474.739899
2902.831055	491.850769
2902.075195	515.833130
2901.318359	484.794556
2900.562500	477.830719
2899.805664	402.129364
2899.048828	432.983246
2898.292969	474.133087
2897.535156	436.260132
2896.778320	405.269989
2896.021484	412.063629
2895.263672	422.288025
2894.506836	459.969543
2893.749023	398.109802
2892.991211	428.919189
2892.233398	370.518433
2891.475586	387.601196
2890.717773	329.229279
2889.958984	397.745972
2889.201172	387.388611
2888.442383	397.600525
2887.683594	356.404236
2886.924805	301.517670
2886.166016	376.828125
2885.406250	363.058868
2884.647461	366.416901
2883.887695	352.654572
2883.127930	362.859650
2882.369141	338.835205
2881.609375	352.461029
2880.848633	383.188446
2880.088867	338.649231
2879.329102	369.367920
2878.568359	389.817017
2877.807617	324.788055
2877.046875	369.165131
2876.286133	297.328583
2875.525391	379.280823
2874.764648	324.550293
2874.002930	413.298889
2873.242188	334.676666
2872.480469	375.588684
2871.718750	399.416626
2870.957031	375.451141
2870.195313	324.193878
2869.433594	358.253906
2868.670898	392.301483
2867.909180	341.069214
2867.146484	405.798035
2866.383789	385.267029
2865.621094	378.378815
2864.858398	385.125885
2864.094727	350.979614
2863.332031	395.205566
2862.568359	327.006744
2861.805664	361.003784
2861.041992	364.342682
2860.278320	292.782501
2859.513672	415.266510
2858.750000	350.529572
2857.986328	340.257599
2857.221680	282.362030
2856.457031	340.132843
2855.692383	336.669769
2854.927734	353.608459
2854.163086	363.741974
2853.398438	339.883423
2852.632813	343.219299
2851.868164	387.324982
2851.102539	343.093414
2850.336914	288.689026
2849.571289	349.759003
2848.805664	370.065399
2848.040039	295.319122
2847.273438	332.597260
2846.506836	383.434662
2845.741211	332.475220
2844.974609	335.806183
2844.208008	403.571747
2843.440430	298.384857
2842.673828	349.181793
2841.907227	338.949219
2841.139648	355.831360
2840.372070	345.601288
2839.604492	342.150208
2838.836914	362.409424
2838.069336	311.547150
2837.301758	308.104187
2836.533203	352.054413
2835.765625	341.836212
2834.997070	297.782776
2834.228516	294.344818
2833.459961	355.178497
2832.691406	331.439026
2831.921875	253.605728
2831.153320	354.982788
2830.383789	283.934052
2829.614258	368.370544
2828.844727	361.545013
2828.075195	341.208740
2827.305664	361.412140
2826.536133	364.722809
2825.765625	351.149994
2824.995117	347.709625
2824.225586	347.645721
2823.455078	361.080139
2822.684570	323.900208
2821.913086	354.200714
2821.142578	296.799347
2820.371094	327.093689
2819.600586	323.662048
2818.829102	316.860809
2818.057617	326.913269
2817.286133	303.265808
2816.514648	316.686035
2815.742188	330.101288
2814.970703	343.511627
2814.198242	316.511292
2813.425781	343.385254
2812.653320	329.858459
2811.880859	353.354736
2811.108398	353.289734
2810.334961	363.316864
2809.562500	366.613434
2808.789063	376.634369
2808.015625	279.061615
2807.242188	329.433777
2806.468750	416.757843
2805.695313	332.672821
2804.920898	342.690735
2804.146484	386.295868
2803.373047	396.300171
2802.598633	396.227203
2801.824219	302.151550
2801.049805	412.864410
2800.274414	375.872345
2799.500000	315.406189
2798.724609	362.314819
2797.949219	338.769043
2797.174805	338.706635
2796.399414	362.114655
2795.623047	365.400238
2794.847656	395.498016
2794.071289	325.052856
2793.295898	425.506256
2792.519531	442.176971
2791.743164	331.571625
2790.966797	368.345001
2790.190430	421.844696
2789.413086	384.946014
2788.636719	344.714203
2787.859375	364.727386
2787.082031	337.896088
2786.304688	357.903137
2785.527344	351.148590
2784.750000	421.300629
2783.972656	367.734314
2783.194336	324.214996
2782.416016	350.889648
2781.638672	344.142578
2780.860352	267.245880
2780.081055	404.134857
2779.302734	377.345581
2778.524414	370.598511
2777.745117	383.882568
2776.965820	327.074371
2776.187500	410.435944
2775.408203	370.325073
2774.627930	383.599335
2773.848633	306.822815
2773.069336	433.473969
2772.289063	353.382782
2771.508789	403.315308
2770.728516	376.580322
2769.948242	369.846893
2769.167969	353.121918
2768.387695	409.679016
2767.606445	352.991516
2766.826172	432.834198
2766.044922	422.767639
2765.263672	369.437347
2764.482422	366.041443
2763.701172	389.263092
2762.918945	412.476135
2762.137695	385.793488
2761.355469	399.023010
2760.573242	412.247589
2759.791016	388.903687
2759.008789	461.945496
2758.226563	355.532623
2757.443359	401.976624
2756.661133	395.259338
2755.877930	408.469849
2755.094727	365.230743
2754.311523	408.318878
2753.528320	391.648132
2752.745117	358.391357
2751.960938	358.325104
2751.177734	431.237518
2750.393555	444.424164
2749.609375	427.762085
2748.825195	424.367615
2748.041016	450.807190
2747.256836	384.440918
2746.471680	404.251007
2745.686523	410.802063
2744.902344	433.912231
2744.117188	417.273499
2743.332031	403.951965
2742.545898	357.530670
2741.760742	426.971527
2740.974609	390.490845
2740.189453	377.184052
2739.403320	459.814728
2738.617188	410.118530
2737.831055	433.190186
2737.044922	373.598724
2736.257813	409.890839
2735.470703	393.290192
2734.684570	429.565186
2733.897461	436.093140
2733.110352	488.862396
2732.323242	416.116608
2731.535156	425.945251
2730.748047	425.866364
2729.959961	429.088196
2729.172852	445.509064
2728.384766	376.137970
2727.596680	458.539398
2726.807617	385.893341
2726.019531	478.155273
2725.230469	398.938416
2724.442383	421.939301
2723.653320	441.635864
2722.864258	418.487793
2722.075195	424.999390
2721.286133	484.211853
2720.496094	470.948730
2719.707031	418.177643
2718.916992	444.437164
2718.126953	447.646301
2717.336914	480.472382
2716.546875	391.545288
2715.755859	437.528320
2714.965820	467.048889
2714.174805	440.654541
2713.384766	440.572815
2712.593750	443.778381
2711.802734	506.142181
2711.010742	430.469666
2710.219727	410.677307
2709.428711	479.582123
2708.636719	407.240753
2707.844727	453.135498
2707.052734	436.636505
2706.260742	459.532104
2705.468750	449.601532
2704.675781	423.268890
2703.883789	455.995789
2703.090820	416.551910
2702.297852	445.988556
2701.504883	485.250397
2700.711914	426.154358
2699.918945	429.352753
2699.125000	452.211304
2698.331055	478.337616
2697.538086	445.492035
2696.744141	451.959442
2695.950195	487.894592
2695.155273	445.243927
2694.361328	451.707703
2693.567383	448.351196
2692.772461	438.451813
2691.977539	484.170258
2691.182617	477.538696
2690.387695	431.667114
2689.592773	510.057251
2688.796875	444.582703
2688.001953	437.963318
2687.206055	522.844116
2686.410156	591.357483
2685.614258	489.984192
2684.818359	444.169769
2684.021484	542.047607
2683.225586	434.210449
2682.428711	460.242798
2681.631836	430.785492
2680.834961	437.231232
2680.038086	473.035400
2679.241211	538.181580
2678.444336	433.726288
2677.646484	462.990082
2676.848633	498.762726
2676.050781	456.299316
2675.252930	456.214447
2674.455078	488.710266
2673.657227	524.451477
2672.859375	504.812744
2672.060547	524.256348
2671.261719	494.858002
2670.462891	530.571350
2669.664063	520.709290
2668.865234	488.074127
2668.065430	468.463989
2667.266602	429.345398
2666.466797	520.321777
2665.666992	477.956665
2664.867188	500.623291
2664.067383	510.280670
2663.267578	516.684875
2662.466797	542.580566
2661.666992	480.760284
2660.866211	457.936340
2660.065430	513.052979
2659.264648	542.176514
2658.463867	532.337646
2657.663086	516.011719
2656.861328	480.223328
2656.059570	574.214172
2655.257813	489.775055
2654.457031	525.356140
2653.654297	505.804260
2652.852539	453.842316
2652.050781	486.169006
2651.248047	469.875793
2650.445313	482.747894
2649.642578	524.769043
2648.839844	482.567963
2648.037109	524.573425
2647.234375	443.538025
2646.430664	504.956451
2645.627930	466.026764
2644.824219	575.953430
2644.020508	504.674072
2643.216797	507.814453
2642.412109	533.590820
2641.608398	481.758820
2640.803711	517.228455
2640.000000	526.828186
2639.195313	562.276123
2638.390625	523.400757
2637.584961	529.763672
2636.780273	536.124146
2635.975586	490.817291
2635.169922	523.010315
2634.364258	555.191284
2633.558594	526.042358
2632.752930	554.984070
2631.947266	548.428406
2631.140625	554.776917
2630.334961	512.750366
2629.528320	551.345581
2628.721680	528.677185
2627.915039	518.909363
2627.108398	567.148987
2626.300781	509.050079
2625.494141	573.379700
2624.686523	492.756805
2623.878906	550.625366
2623.071289	508.669922
2622.263672	524.669067
2621.456055	553.535095
2620.648438	537.343567
2619.839844	575.847473
2619.031250	543.575623
2618.222656	495.236755
2617.414063	495.144196
2616.605469	523.983276
2615.796875	575.309692
2614.987305	581.629028
2614.177734	578.307495
2613.369141	552.501648
2612.559570	558.821594
2611.749023	545.873047
2610.939453	520.087646
2610.129883	571.347534
2609.319336	529.520874
2608.508789	596.802795
2607.698242	545.362915
2606.887695	529.223877
2606.077148	541.952148
2605.266602	525.819702
2604.455078	525.721375
2603.644531	589.723389
2602.833008	528.729126
2602.021484	583.095154
2601.208984	557.360291
2600.397461	509.216675
2599.585938	585.969910
2598.773438	537.838928
2597.960938	521.734131
2597.148438	588.841248
2596.335938	547.135864
2595.523438	591.819824
2594.710938	636.487061
2593.897461	575.609131
2593.083984	572.304138
2592.270508	575.393616
2591.457031	536.933533
2590.643555	584.764465
2589.830078	581.460144
2589.015625	594.128174
2588.202148	613.178772
2587.387695	584.326538
2586.573242	622.526428
2585.758789	616.026123
2584.944336	635.058167
2584.128906	571.126221
2583.313477	622.060059
2582.499023	558.154419
2581.683594	567.616394
2580.868164	513.309631
2580.052734	647.095215
2579.236328	608.729187
2578.420898	618.174500
2577.604492	611.686890
2576.788086	611.572205
2575.971680	592.349487
2575.155273	601.790649
2574.338867	620.778748
2573.521484	557.004639
2572.704102	681.009399
2571.887695	610.884521
